File: app/data/pbs/PBS_15Kmin.txt
#EXPORTTYPE:DATA SINGLE
#FILE:2024-02-15_Неизотермическая кристаллизация PBS_25-140_3-5-10-15-17-20Kmin_50mlmin.ngb-sd7
#FORMAT:NETZSCH5
#FTYPE:ANSI
#IDENTITY:PBS
#DECIMAL:POINT
#SEPARATOR:SEMICOLON
#MTYPE:DSC
#INSTRUMENT:NETZSCH DSC 204F1 Phoenix
#PROJECT:
#DATE/TIME:15.02.2024 11:16
#CORR. FILE:
#TEMPCAL:06-12-2021 13:53
#SENSITIVITY:06-12-2021 13:52
#LABORATORY:
#OPERATOR:SitnikovaV
#REMARK:
#SAMPLE:PBS
#SAMPLE MASS /mg:17,842
#MATERIAL:polymer
#REFERENCE:ПВС порошок
#REFERENCE MASS /mg:0
#TYPE OF CRUCIBLE:Concavus Al, closed
#SAMPLE CRUCIBLE MASS /mg:0
#REFERENCE CRUCIBLE MASS /mg:0
#PURGE 1 MFC:OXYGEN,252,5 ml/min
#PURGE 2 MFC:NITROGEN,250,0 ml/min
#PROTECTIVE MFC:NITROGEN,250,0 ml/min
#M.RANGE /µV:5000
#TAU-R:---
#CORR. CODE:000
#EXO:-1
#RANGE:140°C/15.0(K/min)/50°C
#SEGMENT:S15/24
#SEG. 15:140°C/15.0(K/min)/50°C

##Temp./°C;Time/min;DSC/(mW/mg);Sensit./(uV/mW)
 50.07700;117.245;     -0.56964;3.45115
 50.57700;117.212;     -0.57207;3.45090
 51.07700;117.178;     -0.57481;3.45065
 51.57700;117.145;     -0.57786;3.45040
 52.07700;117.111;     -0.58054;3.45015
 52.57700;117.078;     -0.58390;3.44989
 53.07700;117.044;     -0.58710;3.44963
 53.57700;117.011;     -0.59029;3.44937
 54.07700;116.977;     -0.59406;3.44910
 54.57700;116.944;     -0.59806;3.44883
 55.07700;116.91;     -0.60253;3.44856
 55.57700;116.877;     -0.60753;3.44829
 56.07700;116.844;     -0.61269;3.44801
 56.57700;116.81;     -0.61837;3.44773
 57.07700;116.777;     -0.62482;3.44745
 57.57700;116.743;     -0.63237;3.44716
 58.07700;116.71;     -0.64094;3.44687
 58.57700;116.677;     -0.65051;3.44658
 59.07700;116.643;     -0.66190;3.44629
 59.57700;116.61;     -0.67460;3.44599
 60.07700;116.577;     -0.68912;3.44569
 60.57700;116.543;     -0.70746;3.44539
 61.07700;116.51;     -0.72609;3.44508
 61.57700;116.476;     -0.75058;3.44477
 62.07700;116.443;     -0.77887;3.44446
 62.57700;116.41;     -0.81264;3.44415
 63.07700;116.377;     -0.85267;3.44383
 63.57700;116.343;     -0.89938;3.44351
 64.07700;116.31;     -0.95474;3.44319
 64.57700;116.277;     -1.01983;3.44286
 65.07700;116.243;     -1.09661;3.44253
 65.57700;116.21;     -1.18448;3.44220
 66.07700;116.177;     -1.28391;3.44186
 66.57700;116.144;     -1.39216;3.44153
 67.07700;116.11;     -1.50881;3.44119
 67.57700;116.077;     -1.63069;3.44084
 68.07700;116.044;     -1.75217;3.44050
 68.57700;116.011;     -1.87035;3.44015
 69.07700;115.977;     -1.98141;3.43980
 69.57700;115.944;     -2.08298;3.43944
 70.07700;115.911;     -2.17151;3.43909
 70.57700;115.877;     -2.24380;3.43873
 71.07700;115.844;     -2.29719;3.43836
 71.57700;115.811;     -2.32970;3.43800
 72.07700;115.778;     -2.34036;3.43763
 72.57700;115.744;     -2.32799;3.43726
 73.07700;115.711;     -2.29322;3.43688
 73.57700;115.678;     -2.23718;3.43651
 74.07700;115.644;     -2.16188;3.43613
 74.57700;115.611;     -2.07027;3.43575
 75.07700;115.578;     -1.96532;3.43536
 75.57700;115.544;     -1.85027;3.43497
 76.07700;115.511;     -1.72884;3.43458
 76.57700;115.477;     -1.60502;3.43419
 77.07700;115.444;     -1.48200;3.43379
 77.57700;115.411;     -1.36268;3.43339
 78.07700;115.377;     -1.24944;3.43299
 78.57700;115.344;     -1.14471;3.43258
 79.07700;115.311;     -1.04906;3.43217
 79.57700;115.277;     -0.96352;3.43176
 80.07700;115.244;     -0.88893;3.43135
 80.57700;115.211;     -0.82481;3.43093
 81.07700;115.178;     -0.77055;3.43051
 81.57700;115.144;     -0.72548;3.43009
 82.07700;115.111;     -0.68844;3.42967
 82.57700;115.078;     -0.65916;3.42924
 83.07700;115.045;     -0.63546;3.42881
 83.57700;115.012;     -0.61729;3.42837
 84.07700;114.978;     -0.60360;3.42794
 84.57700;114.945;     -0.59307;3.42750
 85.07700;114.912;     -0.58549;3.42706
 85.57700;114.879;     -0.58004;3.42661
 86.07700;114.846;     -0.57612;3.42616
 86.57700;114.813;     -0.57326;3.42571
 87.07700;114.779;     -0.57172;3.42526
 87.57700;114.746;     -0.57072;3.42481
 88.07700;114.713;     -0.57020;3.42435
 88.57700;114.68;     -0.57028;3.42388
 89.07700;114.647;     -0.57056;3.42342
 89.57700;114.614;     -0.57079;3.42295
 90.07700;114.581;     -0.57157;3.42248
 90.57700;114.547;     -0.57223;3.42201
 91.07700;114.514;     -0.57260;3.42153
 91.57700;114.481;     -0.57320;3.42106
 92.07700;114.448;     -0.57396;3.42058
 92.57700;114.415;     -0.57460;3.42009
 93.07700;114.382;     -0.57546;3.41960
 93.57700;114.349;     -0.57578;3.41911
 94.07700;114.316;     -0.57668;3.41862
 94.57700;114.283;     -0.57720;3.41813
 95.07700;114.249;     -0.57761;3.41763
 95.57700;114.216;     -0.57854;3.41713
 96.07700;114.183;     -0.57926;3.41663
 96.57700;114.15;     -0.57990;3.41612
 97.07700;114.117;     -0.58044;3.41561
 97.57700;114.084;     -0.58096;3.41510
 98.07700;114.051;     -0.58165;3.41458
 98.57700;114.018;     -0.58243;3.41407
 99.07700;113.985;     -0.58325;3.41355
 99.57700;113.952;     -0.58404;3.41302
100.077;113.919;     -0.58494;3.41250
100.577;113.886;     -0.58534;3.41197
101.077;113.853;     -0.58625;3.41144
101.577;113.82;     -0.58692;3.41090
102.077;113.787;     -0.58805;3.41037
102.577;113.754;     -0.58894;3.40983
103.077;113.721;     -0.58986;3.40928
103.577;113.688;     -0.59091;3.40874
104.077;113.655;     -0.59189;3.40819
104.577;113.622;     -0.59277;3.40764
105.077;113.589;     -0.59409;3.40709
105.577;113.556;     -0.59511;3.40653
106.077;113.523;     -0.59603;3.40597
106.577;113.49;     -0.59743;3.40541
107.077;113.457;     -0.59884;3.40485
107.577;113.424;     -0.60009;3.40428
108.077;113.391;     -0.60172;3.40371
108.577;113.359;     -0.60285;3.40314
109.077;113.326;     -0.60445;3.40256
109.577;113.293;     -0.60587;3.40198
110.077;113.26;     -0.60756;3.40140
110.577;113.228;     -0.60934;3.40082
111.077;113.195;     -0.61153;3.40023
111.577;113.163;     -0.61297;3.39964
112.077;113.13;     -0.61520;3.39905
112.577;113.098;     -0.61724;3.39845
113.077;113.065;     -0.61916;3.39786
113.577;113.033;     -0.62145;3.39726
114.077;113.001;     -0.62377;3.39665
114.577;112.968;     -0.62633;3.39605
115.077;112.936;     -0.62873;3.39544
115.577;112.904;     -0.63144;3.39483
116.077;112.872;     -0.63382;3.39421
116.577;112.84;     -0.63655;3.39360
117.077;112.808;     -0.63933;3.39298
117.577;112.777;     -0.64252;3.39236
118.077;112.745;     -0.64549;3.39173
118.577;112.714;     -0.64869;3.39110
119.077;112.682;     -0.65195;3.39047
119.577;112.651;     -0.65524;3.38984
120.077;112.62;     -0.65829;3.38920
120.577;112.588;     -0.66183;3.38857
121.077;112.557;     -0.66537;3.38792
121.577;112.527;     -0.66882;3.38728
122.077;112.496;     -0.67269;3.38663
122.577;112.465;     -0.67607;3.38598
123.077;112.435;     -0.67962;3.38533
123.577;112.404;     -0.68309;3.38468
124.077;112.374;     -0.68619;3.38402
124.577;112.344;     -0.68928;3.38336
125.077;112.314;     -0.69208;3.38270
125.577;112.285;     -0.69470;3.38203
126.077;112.255;     -0.69694;3.38136
126.577;112.226;     -0.69856;3.38069
127.077;112.196;     -0.70005;3.38002
127.577;112.167;     -0.70063;3.37934
128.077;112.138;     -0.70056;3.37866
128.577;112.11;     -0.69966;3.37798
129.077;112.081;     -0.69785;3.37730
129.577;112.052;     -0.69485;3.37661
130.077;112.024;     -0.69072;3.37592
130.577;111.996;     -0.68506;3.37523
131.077;111.967;     -0.67785;3.37453
131.577;111.939;     -0.66893;3.37383
132.077;111.911;     -0.65761;3.37313
132.577;111.883;     -0.64393;3.37243
133.077;111.855;     -0.62805;3.37172
133.577;111.827;     -0.60877;3.37101
134.077;111.799;     -0.58672;3.37030
134.577;111.77;     -0.56104;3.36959
135.077;111.742;     -0.53197;3.36887
135.577;111.713;     -0.49890;3.36815
136.077;111.683;     -0.46135;3.36743
136.577;111.653;     -0.41919;3.36671
137.077;111.622;     -0.37200;3.36598
137.577;111.589;     -0.31971;3.36525
138.077;111.554;     -0.26179;3.36452
138.577;111.516;     -0.19886;3.36378
139.077;111.472;     -0.13202;3.36304
139.577;111.413;-6.418827e-02;3.36230